IAD1
#
# Sample header
# by Scott Prahl 				{also ignored}
#
1.42       # Index of refraction of sample
1.0      # Index of refraction of top slide
1.31       # [mm] Thickness of sample
0.0       # [mm] Thickness of slides
0.22       # [mm] Diameter of illumination beam
0.99      # Reflectance of calibration standard

0         # [mm] Number of spheres used during each measurement

          # Refection sphere properties
203.2     # [mm] Sphere Diameter
25.4      # [mm] Sample Port Diameter
12.7      # [mm] Empty Port Diameter
1.0       # [mm] Detector Port Diameter
0.96 # Reflectivity of the sphere wall

          # Transmission sphere properties
203.2     # [mm] Sphere Diameter
25.4      # [mm] Sample Port Diameter
12.7         # [mm] Empty Port Diameter
1       # [mm] Detector Port Diameter
0.96 # Reflectivity of the sphere wall

2         # [mm] Number of measurements

#wave	refl	trans	thickness
750	0.169	0.473
748	0.169	0.472
746	0.169	0.471
744	0.168	0.47
742	0.167	0.469
740	0.167	0.468
738	0.166	0.467
736	0.166	0.466
734	0.166	0.466
732	0.166	0.464
730	0.166	0.463
728	0.166	0.462
726	0.166	0.461
724	0.165	0.46
722	0.164	0.46
720	0.164	0.459
718	0.164	0.458
716	0.164	0.457
714	0.163	0.455
712	0.163	0.455
710	0.163	0.454
708	0.163	0.452
706	0.162	0.451
704	0.162	0.45
702	0.161	0.449
700	0.161	0.448
698	0.16	0.446
696	0.16	0.445
694	0.16	0.443
692	0.159	0.442
690	0.159	0.441
688	0.159	0.44
686	0.158	0.438
684	0.158	0.437
682	0.158	0.435
680	0.157	0.434
678	0.157	0.433
676	0.156	0.432
674	0.156	0.431
672	0.155	0.43
670	0.155	0.429
668	0.155	0.428
666	0.154	0.427
664	0.154	0.425
662	0.154	0.424
660	0.154	0.422
658	0.153	0.421
656	0.153	0.42
654	0.153	0.418
652	0.152	0.417
650	0.152	0.415
648	0.151	0.413
646	0.151	0.412
644	0.151	0.411
642	0.15	0.41
640	0.15	0.409
638	0.15	0.408
636	0.149	0.407
634	0.149	0.405
632	0.148	0.403
630	0.147	0.402
628	0.147	0.4
626	0.147	0.399
624	0.146	0.397
622	0.146	0.396
620	0.146	0.394
618	0.146	0.393
616	0.145	0.391
614	0.145	0.389
612	0.144	0.388
610	0.143	0.387
608	0.143	0.385
606	0.142	0.383
604	0.141	0.381
602	0.141	0.379
600	0.14	0.377
598	0.14	0.375
596	0.139	0.372
594	0.138	0.37
592	0.137	0.368
590	0.136	0.365
588	0.135	0.363
586	0.134	0.36
584	0.132	0.357
582	0.131	0.354
580	0.13	0.352
578	0.128	0.348
576	0.126	0.345
574	0.125	0.341
572	0.123	0.337
570	0.121	0.333
568	0.119	0.329
566	0.117	0.324
564	0.115	0.32
562	0.112	0.315
560	0.11	0.31
558	0.107	0.306
556	0.105	0.3
554	0.103	0.295
552	0.1	0.29
550	0.098	0.286
548	0.096	0.281
546	0.094	0.276
544	0.092	0.271
542	0.09	0.266
540	0.088	0.261
538	0.086	0.256
536	0.084	0.252
534	0.082	0.247
532	0.081	0.242
530	0.079	0.238
528	0.077	0.234
526	0.076	0.23
524	0.074	0.226
522	0.073	0.222
520	0.071	0.218
518	0.07	0.215
516	0.069	0.21
514	0.068	0.206
512	0.067	0.202
510	0.066	0.198
508	0.065	0.194
506	0.063	0.191
504	0.062	0.187
502	0.061	0.183
500	0.061	0.18
498	0.06	0.177
496	0.059	0.173
494	0.058	0.17
492	0.057	0.166
490	0.056	0.163
488	0.056	0.16
486	0.055	0.157
484	0.054	0.154
482	0.054	0.151
480	0.054	0.149
478	0.053	0.146
476	0.053	0.144
474	0.052	0.142
472	0.052	0.139
470	0.052	0.137
468	0.052	0.135
466	0.051	0.132
464	0.051	0.13
462	0.05	0.128
460	0.05	0.125
458	0.05	0.123
456	0.05	0.121
454	0.049	0.118
452	0.049	0.115
450	0.049	0.112
448	0.048	0.109
446	0.048	0.106
444	0.047	0.102
442	0.047	0.099
440	0.046	0.095
438	0.046	0.091
436	0.045	0.087
434	0.044	0.083
432	0.044	0.079
430	0.043	0.076
428	0.043	0.072
426	0.043	0.069
424	0.042	0.067
422	0.042	0.064
420	0.042	0.062
418	0.042	0.059
416	0.041	0.057
414	0.041	0.055
412	0.041	0.053
410	0.041	0.051
408	0.041	0.049
406	0.041	0.047
404	0.041	0.046
402	0.041	0.044
400	0.041	0.043
