IAD1
#
# Sample header
# by Scott Prahl 				{also ignored}
#
1.42       # Index of refraction of sample
1.0      # Index of refraction of top slide
1.37       # [mm] Thickness of sample
0.0       # [mm] Thickness of slides
0.22       # [mm] Diameter of illumination beam
0.99      # Reflectance of calibration standard

0         # [mm] Number of spheres used during each measurement

          # Refection sphere properties
203.2     # [mm] Sphere Diameter
25.4      # [mm] Sample Port Diameter
12.7      # [mm] Empty Port Diameter
1.0       # [mm] Detector Port Diameter
0.96 # Reflectivity of the sphere wall

          # Transmission sphere properties
203.2     # [mm] Sphere Diameter
25.4      # [mm] Sample Port Diameter
12.7         # [mm] Empty Port Diameter
1       # [mm] Detector Port Diameter
0.96 # Reflectivity of the sphere wall

2         # [mm] Number of measurements

#wave	refl	trans	thickness
750	0.199	0.516
748	0.199	0.515
746	0.198	0.514
744	0.198	0.513
742	0.198	0.512
740	0.197	0.511
738	0.197	0.51
736	0.197	0.509
734	0.197	0.509
732	0.197	0.509
730	0.197	0.508
728	0.196	0.507
726	0.196	0.506
724	0.196	0.505
722	0.195	0.504
720	0.195	0.503
718	0.195	0.503
716	0.195	0.502
714	0.194	0.501
712	0.194	0.5
710	0.193	0.498
708	0.193	0.497
706	0.193	0.496
704	0.192	0.495
702	0.192	0.495
700	0.192	0.494
698	0.192	0.493
696	0.192	0.492
694	0.191	0.491
692	0.191	0.489
690	0.191	0.488
688	0.19	0.486
686	0.19	0.485
684	0.19	0.484
682	0.189	0.483
680	0.189	0.481
678	0.188	0.48
676	0.188	0.48
674	0.187	0.479
672	0.187	0.478
670	0.187	0.476
668	0.186	0.475
666	0.186	0.474
664	0.186	0.472
662	0.186	0.471
660	0.185	0.47
658	0.185	0.469
656	0.185	0.469
654	0.184	0.468
652	0.184	0.466
650	0.183	0.465
648	0.183	0.463
646	0.183	0.462
644	0.183	0.461
642	0.183	0.46
640	0.183	0.459
638	0.182	0.458
636	0.182	0.456
634	0.181	0.455
632	0.18	0.454
630	0.18	0.452
628	0.179	0.451
626	0.179	0.449
624	0.178	0.448
622	0.178	0.447
620	0.178	0.446
618	0.177	0.444
616	0.177	0.442
614	0.176	0.441
612	0.176	0.439
610	0.175	0.438
608	0.175	0.436
606	0.175	0.435
604	0.174	0.433
602	0.174	0.431
600	0.173	0.429
598	0.172	0.427
596	0.171	0.424
594	0.17	0.422
592	0.17	0.42
590	0.169	0.418
588	0.167	0.416
586	0.166	0.413
584	0.165	0.41
582	0.164	0.407
580	0.162	0.405
578	0.161	0.401
576	0.159	0.398
574	0.157	0.394
572	0.155	0.391
570	0.153	0.388
568	0.151	0.384
566	0.149	0.38
564	0.146	0.376
562	0.144	0.372
560	0.141	0.367
558	0.139	0.362
556	0.136	0.357
554	0.133	0.352
552	0.131	0.347
550	0.128	0.343
548	0.125	0.338
546	0.123	0.334
544	0.12	0.329
542	0.118	0.324
540	0.116	0.319
538	0.113	0.314
536	0.111	0.31
534	0.109	0.305
532	0.107	0.301
530	0.105	0.297
528	0.103	0.292
526	0.101	0.288
524	0.099	0.284
522	0.098	0.279
520	0.096	0.276
518	0.094	0.271
516	0.093	0.267
514	0.091	0.263
512	0.089	0.259
510	0.088	0.255
508	0.086	0.252
506	0.085	0.248
504	0.083	0.244
502	0.082	0.24
500	0.081	0.237
498	0.08	0.233
496	0.078	0.229
494	0.077	0.225
492	0.076	0.221
490	0.074	0.218
488	0.073	0.214
486	0.072	0.211
484	0.072	0.208
482	0.071	0.205
480	0.07	0.202
478	0.07	0.2
476	0.069	0.197
474	0.068	0.194
472	0.067	0.191
470	0.067	0.189
468	0.066	0.186
466	0.066	0.183
464	0.065	0.18
462	0.064	0.178
460	0.063	0.175
458	0.063	0.173
456	0.062	0.17
454	0.062	0.168
452	0.061	0.165
450	0.061	0.161
448	0.06	0.157
446	0.059	0.153
444	0.058	0.149
442	0.057	0.144
440	0.056	0.14
438	0.055	0.135
436	0.054	0.13
434	0.053	0.125
432	0.052	0.121
430	0.052	0.116
428	0.051	0.112
426	0.05	0.108
424	0.049	0.105
422	0.049	0.101
420	0.048	0.098
418	0.047	0.095
416	0.047	0.092
414	0.046	0.089
412	0.046	0.087
410	0.046	0.084
408	0.046	0.081
406	0.046	0.079
404	0.045	0.076
402	0.045	0.074
400	0.045	0.073
